%delta(deg)  depth(km)  Tp(seconds)  Ts(seconds)  Tps(seconds)
   0.00000     0.000     0.00000     0.00000     0.00000
   0.00344     1.000     0.18462     0.31477     0.13015
   0.00688     2.000     0.36924     0.62954     0.26030
   0.01032     3.000     0.55387     0.94432     0.39045
   0.01376     4.000     0.73850     1.25911     0.52061
   0.01721     5.000     0.92314     1.57390     0.65076
   0.02065     6.000     1.10778     1.88870     0.78092
   0.02410     7.000     1.29243     2.20351     0.91108
   0.02755     8.000     1.47708     2.51832     1.04124
   0.03100     9.000     1.66173     2.83313     1.17140
   0.03445    10.000     1.84639     3.14795     1.30156
   0.03790    11.000     2.03105     3.46278     1.43173
   0.04135    12.000     2.21572     3.77762     1.56190
   0.04480    13.000     2.40039     4.09246     1.69207
   0.04826    14.000     2.58506     4.40730     1.82224
   0.05171    15.000     2.76974     4.72215     1.95241
   0.05517    16.000     2.95443     5.03701     2.08258
   0.05863    17.000     3.13912     5.35187     2.21276
   0.06209    18.000     3.32381     5.66674     2.34294
   0.06555    19.000     3.50850     5.98162     2.47311
   0.06901    20.000     3.69321     6.29650     2.60329
   0.07297    21.000     3.86122     6.58305     2.72182
   0.07692    22.000     4.02925     6.86960     2.84035
   0.08088    23.000     4.19728     7.15616     2.95888
   0.08484    24.000     4.36531     7.44273     3.07742
   0.08881    25.000     4.53335     7.72931     3.19595
   0.09277    26.000     4.70140     8.01589     3.31449
   0.09673    27.000     4.86945     8.30248     3.43303
   0.10070    28.000     5.03750     8.58907     3.55157
   0.10467    29.000     5.20556     8.87568     3.67011
   0.10863    30.000     5.37363     9.16229     3.78866
   0.11260    31.000     5.54170     9.44891     3.90721
   0.11658    32.000     5.70977     9.73553     4.02576
   0.12055    33.000     5.87786    10.02216     4.14431
   0.12452    34.000     6.04594    10.30880     4.26286
   0.12850    35.000     6.21403    10.59545     4.38142
   0.13369    36.000     6.35750    10.84604     4.48854
   0.13888    37.000     6.50097    11.09662     4.59565
   0.14408    38.000     6.64445    11.34720     4.70275
   0.14928    39.000     6.78794    11.59777     4.80983
   0.15448    40.000     6.93143    11.84833     4.91690
   0.15968    41.000     7.07493    12.09888     5.02396
   0.16489    42.000     7.21843    12.34943     5.13100
   0.17010    43.000     7.36194    12.59997     5.23803
   0.17531    44.000     7.50545    12.85050     5.34505
   0.18052    45.000     7.64898    13.10103     5.45205
   0.18573    46.000     7.79250    13.35154     5.55904
   0.19094    47.000     7.93604    13.60206     5.66602
   0.19616    48.000     8.07958    13.85256     5.77298
   0.20138    49.000     8.22312    14.10306     5.87993
   0.20660    50.000     8.36668    14.35355     5.98687
   0.21182    51.000     8.51023    14.60403     6.09379
   0.21705    52.000     8.65380    14.85450     6.20070
   0.22228    53.000     8.79737    15.10497     6.30760
   0.22751    54.000     8.94095    15.35543     6.41448
   0.23274    55.000     9.08453    15.60588     6.52135
   0.23797    56.000     9.22812    15.85633     6.62821
   0.24321    57.000     9.37171    16.10676     6.73505
   0.24844    58.000     9.51532    16.35720     6.84188
   0.25368    59.000     9.65892    16.60762     6.94869
   0.25892    60.000     9.80254    16.85804     7.05550
   0.26417    61.000     9.94616    17.10845     7.16229
   0.26941    62.000    10.08979    17.35885     7.26906
   0.27466    63.000    10.23342    17.60924     7.37582
   0.27991    64.000    10.37706    17.85963     7.48257
   0.28516    65.000    10.52071    18.11001     7.58931
   0.29042    66.000    10.66436    18.36038     7.69603
   0.29567    67.000    10.80802    18.61075     7.80273
   0.30093    68.000    10.95168    18.86111     7.90943
   0.30619    69.000    11.09535    19.11146     8.01611
   0.31145    70.000    11.23903    19.36180     8.12277
   0.31671    71.000    11.38271    19.61213     8.22942
   0.32198    72.000    11.52640    19.86246     8.33606
   0.32725    73.000    11.67009    20.11278     8.44269
   0.33252    74.000    11.81380    20.36310     8.54930
   0.33779    75.000    11.95750    20.61340     8.65590
   0.34306    76.000    12.10122    20.86371     8.76249
   0.34834    77.000    12.24494    21.11400     8.86906
   0.35362    78.000    12.38867    21.36429     8.97562
   0.35890    79.000    12.53240    21.61457     9.08217
   0.36418    80.000    12.67614    21.86484     9.18870
   0.36947    81.000    12.81988    22.11511     9.29522
   0.37475    82.000    12.96364    22.36537     9.40173
   0.38004    83.000    13.10739    22.61562     9.50822
   0.38533    84.000    13.25116    22.86586     9.61471
   0.39062    85.000    13.39493    23.11610     9.72117
   0.39592    86.000    13.53871    23.36634     9.82763
   0.40122    87.000    13.68249    23.61656     9.93407
   0.40652    88.000    13.82628    23.86678    10.04050
   0.41182    89.000    13.97007    24.11699    10.14692
   0.41712    90.000    14.11388    24.36720    10.25332
   0.42243    91.000    14.25768    24.61740    10.35971
   0.42773    92.000    14.40150    24.86759    10.46609
   0.43304    93.000    14.54532    25.11777    10.57245
   0.43835    94.000    14.68915    25.36795    10.67880
   0.44367    95.000    14.83298    25.61812    10.78514
   0.44898    96.000    14.97682    25.86829    10.89146
   0.45430    97.000    15.12067    26.11845    10.99777
   0.45962    98.000    15.26453    26.36860    11.10407
   0.46494    99.000    15.40839    26.61874    11.21035
   0.47027   100.000    15.55225    26.86888    11.31663
   0.47559   101.000    15.69613    27.11901    11.42288
   0.48092   102.000    15.84001    27.36913    11.52913
   0.48625   103.000    15.98389    27.61925    11.63536
   0.49158   104.000    16.12778    27.86936    11.74158
   0.49692   105.000    16.27168    28.11946    11.84778
   0.50225   106.000    16.41559    28.36956    11.95397
   0.50759   107.000    16.55950    28.61965    12.06015
   0.51293   108.000    16.70342    28.86973    12.16631
   0.51827   109.000    16.84734    29.11980    12.27246
   0.52362   110.000    16.99127    29.36987    12.37859
   0.52897   111.000    17.13521    29.61993    12.48472
   0.53432   112.000    17.27916    29.86998    12.59083
   0.53967   113.000    17.42311    30.12003    12.69692
   0.54502   114.000    17.56706    30.37007    12.80301
   0.55038   115.000    17.71103    30.62010    12.90908
   0.55573   116.000    17.85500    30.87013    13.01514
   0.56109   117.000    17.99897    31.12015    13.12118
   0.56645   118.000    18.14296    31.37017    13.22721
   0.57182   119.000    18.28695    31.62018    13.33323
   0.57718   120.000    18.43094    31.87018    13.43924
   0.58255   121.000    18.57494    32.12017    13.54523
   0.58793   122.000    18.71892    32.37019    13.65126
   0.59330   123.000    18.86287    32.62022    13.75734
   0.59868   124.000    19.00680    32.87026    13.86346
   0.60407   125.000    19.15071    33.12033    13.96962
   0.60946   126.000    19.29459    33.37041    14.07583
   0.61486   127.000    19.43844    33.62052    14.18207
   0.62026   128.000    19.58227    33.87063    14.28836
   0.62566   129.000    19.72608    34.12077    14.39469
   0.63107   130.000    19.86986    34.37093    14.50107
   0.63648   131.000    20.01362    34.62110    14.60748
   0.64190   132.000    20.15735    34.87129    14.71394
   0.64732   133.000    20.30106    35.12150    14.82044
   0.65275   134.000    20.44474    35.37173    14.92698
   0.65818   135.000    20.58841    35.62197    15.03357
   0.66362   136.000    20.73204    35.87224    15.14019
   0.66906   137.000    20.87566    36.12252    15.24686
   0.67450   138.000    21.01924    36.37282    15.35357
   0.67995   139.000    21.16281    36.62313    15.46032
   0.68541   140.000    21.30635    36.87347    15.56712
   0.69087   141.000    21.44987    37.12382    15.67395
   0.69633   142.000    21.59336    37.37420    15.78083
   0.70180   143.000    21.73684    37.62459    15.88775
   0.70727   144.000    21.88028    37.87499    15.99471
   0.71275   145.000    22.02371    38.12542    16.10171
   0.71823   146.000    22.16711    38.37587    16.20876
   0.72372   147.000    22.31048    38.62633    16.31585
   0.72921   148.000    22.45384    38.87681    16.42297
   0.73470   149.000    22.59717    39.12731    16.53014
   0.74020   150.000    22.74048    39.37783    16.63735
   0.74571   151.000    22.88376    39.62837    16.74461
   0.75122   152.000    23.02702    39.87892    16.85190
   0.75673   153.000    23.17026    40.12950    16.95924
   0.76225   154.000    23.31348    40.38009    17.06662
   0.76778   155.000    23.45667    40.63070    17.17404
   0.77331   156.000    23.59984    40.88134    17.28150
   0.77884   157.000    23.74298    41.13198    17.38900
   0.78438   158.000    23.88611    41.38265    17.49654
   0.78992   159.000    24.02921    41.63334    17.60413
   0.79547   160.000    24.17229    41.88405    17.71176
   0.80102   161.000    24.31534    42.13477    17.81943
   0.80657   162.000    24.45837    42.38551    17.92714
   0.81213   163.000    24.60138    42.63628    18.03489
   0.81770   164.000    24.74437    42.88706    18.14269
   0.82327   165.000    24.88734    43.13786    18.25052
   0.82885   166.000    25.03028    43.38868    18.35840
   0.83443   167.000    25.17320    43.63952    18.46632
   0.84001   168.000    25.31610    43.89037    18.57428
   0.84560   169.000    25.45897    44.14125    18.68228
   0.85119   170.000    25.60182    44.39215    18.79032
   0.85679   171.000    25.74466    44.64306    18.89840
   0.86240   172.000    25.88746    44.89399    19.00653
   0.86801   173.000    26.03025    45.14495    19.11470
   0.87362   174.000    26.17302    45.39592    19.22290
   0.87924   175.000    26.31576    45.64691    19.33115
   0.88486   176.000    26.45848    45.89792    19.43945
   0.89049   177.000    26.60118    46.14895    19.54778
   0.89612   178.000    26.74385    46.40000    19.65615
   0.90176   179.000    26.88651    46.65107    19.76457
   0.90740   180.000    27.02914    46.90216    19.87302
   0.91304   181.000    27.17175    47.15327    19.98152
   0.91869   182.000    27.31434    47.40440    20.09006
   0.92435   183.000    27.45691    47.65555    20.19863
   0.93001   184.000    27.59946    47.90671    20.30725
   0.93568   185.000    27.74199    48.15790    20.41592
   0.94135   186.000    27.88449    48.40911    20.52462
   0.94702   187.000    28.02697    48.66033    20.63336
   0.95270   188.000    28.16944    48.91158    20.74214
   0.95839   189.000    28.31188    49.16284    20.85097
   0.96408   190.000    28.45430    49.41413    20.95983
   0.96977   191.000    28.59669    49.66543    21.06874
   0.97547   192.000    28.73907    49.91676    21.17769
   0.98117   193.000    28.88143    50.16810    21.28668
   0.98688   194.000    29.02376    50.41947    21.39570
   0.99260   195.000    29.16608    50.67085    21.50477
   0.99832   196.000    29.30837    50.92226    21.61389
   1.00404   197.000    29.45065    51.17368    21.72304
   1.00977   198.000    29.59290    51.42513    21.83223
   1.01550   199.000    29.73513    51.67659    21.94146
   1.02124   200.000    29.87734    51.92808    22.05074
   1.02698   201.000    30.01953    52.17958    22.16005
   1.03273   202.000    30.16170    52.43111    22.26941
   1.03848   203.000    30.30385    52.68265    22.37881
   1.04424   204.000    30.44597    52.93422    22.48825
   1.05000   205.000    30.58808    53.18581    22.59772
   1.05577   206.000    30.73017    53.43741    22.70724
   1.06154   207.000    30.87224    53.68904    22.81680
   1.06732   208.000    31.01428    53.94069    22.92640
   1.07310   209.000    31.15631    54.19236    23.03605
   1.07889   210.000    31.29831    54.44404    23.14573
   1.08468   211.000    31.44030    54.69555    23.25525
   1.09048   212.000    31.58226    54.94700    23.36474
   1.09629   213.000    31.72419    55.19840    23.47422
   1.10209   214.000    31.86608    55.44975    23.58366
   1.10791   215.000    32.00795    55.70104    23.69309
   1.11373   216.000    32.14979    55.95229    23.80249
   1.11956   217.000    32.29161    56.20348    23.91187
   1.12539   218.000    32.43339    56.45462    24.02123
   1.13123   219.000    32.57515    56.70571    24.13057
   1.13707   220.000    32.71687    56.95675    24.23988
   1.14292   221.000    32.85857    57.20774    24.34917
   1.14878   222.000    33.00024    57.45867    24.45843
   1.15464   223.000    33.14188    57.70956    24.56768
   1.16051   224.000    33.28349    57.96039    24.67690
   1.16638   225.000    33.42508    58.21117    24.78610
   1.17226   226.000    33.56663    58.46191    24.89527
   1.17815   227.000    33.70816    58.71259    25.00442
   1.18404   228.000    33.84966    58.96322    25.11355
   1.18994   229.000    33.99114    59.21380    25.22266
   1.19584   230.000    34.13258    59.46433    25.33175
   1.20175   231.000    34.27400    59.71481    25.44081
   1.20767   232.000    34.41539    59.96524    25.54985
   1.21359   233.000    34.55675    60.21562    25.65887
   1.21951   234.000    34.69809    60.46595    25.76786
   1.22545   235.000    34.83940    60.71623    25.87683
   1.23139   236.000    34.98068    60.96646    25.98578
   1.23733   237.000    35.12193    61.21664    26.09471
   1.24328   238.000    35.26316    61.46677    26.20362
   1.24924   239.000    35.40436    61.71686    26.31250
   1.25520   240.000    35.54553    61.96689    26.42136
   1.26117   241.000    35.68667    62.21687    26.53020
   1.26714   242.000    35.82779    62.46681    26.63901
   1.27313   243.000    35.96889    62.71669    26.74781
   1.27911   244.000    36.10995    62.96653    26.85658
   1.28511   245.000    36.25099    63.21632    26.96533
   1.29110   246.000    36.39200    63.46606    27.07406
   1.29711   247.000    36.53299    63.71575    27.18276
   1.30312   248.000    36.67395    63.96540    27.29145
   1.30914   249.000    36.81488    64.21499    27.40011
   1.31516   250.000    36.95579    64.46454    27.50875
   1.32119   251.000    37.09667    64.71404    27.61736
   1.32722   252.000    37.23753    64.96349    27.72596
   1.33326   253.000    37.37836    65.21289    27.83453
   1.33931   254.000    37.51916    65.46225    27.94309
   1.34537   255.000    37.65994    65.71155    28.05162
   1.35143   256.000    37.80069    65.96082    28.16012
   1.35749   257.000    37.94142    66.21003    28.26861
   1.36356   258.000    38.08212    66.45919    28.37707
   1.36964   259.000    38.22280    66.70831    28.48552
   1.37572   260.000    38.36345    66.95739    28.59394
   1.38181   261.000    38.50407    67.20641    28.70234
   1.38791   262.000    38.64467    67.45539    28.81072
   1.39401   263.000    38.78525    67.70432    28.91907
   1.40012   264.000    38.92580    67.95320    29.02741
   1.40624   265.000    39.06632    68.20204    29.13572
   1.41236   266.000    39.20682    68.45083    29.24401
   1.41848   267.000    39.34730    68.69958    29.35228
   1.42462   268.000    39.48775    68.94828    29.46053
   1.43076   269.000    39.62818    69.19693    29.56875
   1.43690   270.000    39.76858    69.44554    29.67696
   1.44305   271.000    39.90896    69.69410    29.78514
   1.44921   272.000    40.04931    69.94262    29.89331
   1.45538   273.000    40.18964    70.19109    30.00145
   1.46155   274.000    40.32994    70.43951    30.10957
   1.46772   275.000    40.47022    70.68789    30.21767
   1.47391   276.000    40.61048    70.93622    30.32574
   1.48010   277.000    40.75071    71.18451    30.43380
   1.48629   278.000    40.89092    71.43276    30.54183
   1.49249   279.000    41.03111    71.68096    30.64985
   1.49870   280.000    41.17127    71.92911    30.75784
   1.50492   281.000    41.31141    72.17722    30.86581
   1.51114   282.000    41.45152    72.42528    30.97376
   1.51736   283.000    41.59161    72.67330    31.08169
   1.52360   284.000    41.73168    72.92128    31.18960
   1.52984   285.000    41.87172    73.16921    31.29749
   1.53608   286.000    42.01174    73.41710    31.40535
   1.54234   287.000    42.15174    73.66494    31.51320
   1.54859   288.000    42.29172    73.91274    31.62102
   1.55486   289.000    42.43167    74.16050    31.72883
   1.56113   290.000    42.57160    74.40821    31.83661
   1.56741   291.000    42.71150    74.65588    31.94437
   1.57369   292.000    42.85139    74.90350    32.05211
   1.57998   293.000    42.99125    75.15108    32.15983
   1.58628   294.000    43.13108    75.39862    32.26753
   1.59258   295.000    43.27090    75.64611    32.37521
   1.59889   296.000    43.41069    75.89356    32.48287
   1.60521   297.000    43.55046    76.14097    32.59051
   1.61153   298.000    43.69021    76.38834    32.69812
   1.61786   299.000    43.82994    76.63566    32.80572
   1.62420   300.000    43.96964    76.88294    32.91330
   1.63054   301.000    44.10933    77.13018    33.02085
   1.63689   302.000    44.24899    77.37737    33.12839
   1.64324   303.000    44.38863    77.62453    33.23590
   1.64960   304.000    44.52824    77.87164    33.34339
   1.65597   305.000    44.66784    78.11871    33.45087
   1.66234   306.000    44.80741    78.36573    33.55832
   1.66873   307.000    44.94696    78.61272    33.66575
   1.67511   308.000    45.08650    78.85966    33.77316
   1.68151   309.000    45.22600    79.10656    33.88056
   1.68791   310.000    45.36549    79.35342    33.98793
   1.69431   311.000    45.50496    79.60024    34.09528
   1.70073   312.000    45.64441    79.84702    34.20261
   1.70715   313.000    45.78383    80.09375    34.30992
   1.71357   314.000    45.92324    80.34045    34.41721
   1.72001   315.000    46.06262    80.58710    34.52448
   1.72645   316.000    46.20198    80.83371    34.63173
   1.73289   317.000    46.34132    81.08029    34.73896
   1.73935   318.000    46.48065    81.32682    34.84617
   1.74581   319.000    46.61995    81.57331    34.95336
   1.75227   320.000    46.75923    81.81976    35.06053
   1.75874   321.000    46.89849    82.06617    35.16768
   1.76522   322.000    47.03773    82.31254    35.27481
   1.77171   323.000    47.17695    82.55887    35.38192
   1.77820   324.000    47.31615    82.80516    35.48901
   1.78470   325.000    47.45533    83.05141    35.59608
   1.79121   326.000    47.59449    83.29762    35.70313
   1.79772   327.000    47.73363    83.54379    35.81017
   1.80424   328.000    47.87275    83.78992    35.91718
   1.81076   329.000    48.01185    84.03601    36.02417
   1.81730   330.000    48.15093    84.28207    36.13114
   1.82384   331.000    48.28999    84.52808    36.23809
   1.83038   332.000    48.42903    84.77405    36.34502
   1.83694   333.000    48.56805    85.01999    36.45194
   1.84350   334.000    48.70706    85.26589    36.55883
   1.85006   335.000    48.84604    85.51174    36.66570
   1.85663   336.000    48.98501    85.75756    36.77256
   1.86321   337.000    49.12395    86.00334    36.87939
   1.86980   338.000    49.26288    86.24909    36.98621
   1.87639   339.000    49.40179    86.49479    37.09300
   1.88299   340.000    49.54068    86.74046    37.19978
   1.88960   341.000    49.67955    86.98608    37.30654
   1.89622   342.000    49.81840    87.23167    37.41327
   1.90284   343.000    49.95724    87.47723    37.51999
   1.90946   344.000    50.09605    87.72274    37.62669
   1.91610   345.000    50.23485    87.96822    37.73337
   1.92274   346.000    50.37363    88.21366    37.84003
   1.92939   347.000    50.51239    88.45906    37.94667
   1.93604   348.000    50.65113    88.70442    38.05329
